#FORMAT	     : EMSA/MAS Spectral Data File
#VERSION     : 1.0
#TITLE       : Fe2O3(0-0190eV)
#DATE        : 
#TIME        : 
#OWNER       : 
#NPOINTS     : 1024
#NCOLUMNS    : 1
#XUNITS      : eV
#YUNITS      : 
#DATATYPE    : XY
#XPERCHAN    : 2.000000e-001
#OFFSET      : -1.100000e+001
#SPECTRUM    : Spectral Data Starts Here
-1.100000e+001, -1.000000e+000
-1.080000e+001, -1.000000e+000
-1.060000e+001, -1.000000e+000
-1.040000e+001, -1.000000e+000
-1.020000e+001, -1.000000e+000
-1.000000e+001, 1.000000e-001
-9.800000e+000, 1.000000e-001
-9.600000e+000, 1.000000e-001
-9.400000e+000, 1.000000e-001
-9.200000e+000, 1.000000e-001
-9.000000e+000, 1.000000e-001
-8.800000e+000, 1.470000e+002
-8.600000e+000, 9.800000e+001
-8.400000e+000, 7.700000e+001
-8.200000e+000, 7.900000e+001
-8.000000e+000, 9.800000e+001
-7.800000e+000, 9.300000e+001
-7.600000e+000, 9.600000e+001
-7.400000e+000, 1.050000e+002
-7.200000e+000, 9.500000e+001
-7.000000e+000, 9.800000e+001
-6.800000e+000, 1.050000e+002
-6.600000e+000, 8.500000e+001
-6.400000e+000, 6.300000e+001
-6.200000e+000, 3.300000e+001
-6.000000e+000, 3.800000e+001
-5.800000e+000, 4.800000e+001
-5.600000e+000, 8.500000e+001
-5.400000e+000, 1.260000e+002
-5.200000e+000, 1.370000e+002
-5.000000e+000, 1.940000e+002
-4.800000e+000, 1.890000e+002
-4.600000e+000, 2.770000e+002
-4.400000e+000, 2.780000e+002
-4.200000e+000, 2.850000e+002
-4.000000e+000, 4.020000e+002
-3.800000e+000, 4.690000e+002
-3.600000e+000, 6.000000e+002
-3.400000e+000, 6.730000e+002
-3.200000e+000, 7.720000e+002
-3.000000e+000, 1.092000e+003
-2.800000e+000, 1.448000e+003
-2.599999e+000, 1.957000e+003
-2.400000e+000, 3.024000e+003
-2.200000e+000, 4.280000e+003
-2.000000e+000, 6.026000e+003
-1.800000e+000, 1.000000e+004
-1.599999e+000, 1.490300e+004
-1.400000e+000, 2.535700e+004
-1.200000e+000, 4.341400e+004
-1.000000e+000, 9.106010e+004
-8.000002e-001, 1.503330e+005
-5.999994e-001, 2.989960e+005
-3.999996e-001, 4.551010e+005
-1.999998e-001, 6.134540e+005
0.000000e+000, 7.148240e+005
1.999998e-001, 6.651180e+005
4.000006e-001, 5.779320e+005
6.000004e-001, 3.580810e+005
8.000002e-001, 2.273300e+005
1.000000e+000, 1.268430e+005
1.200000e+000, 7.045700e+004
1.400001e+000, 4.032200e+004
1.600000e+000, 2.664100e+004
1.800000e+000, 1.608800e+004
2.000000e+000, 1.075900e+004
2.200000e+000, 7.155000e+003
2.400001e+000, 5.538000e+003
2.600000e+000, 4.588000e+003
2.800000e+000, 4.125000e+003
3.000000e+000, 3.862000e+003
3.200000e+000, 3.841000e+003
3.400001e+000, 3.865000e+003
3.600000e+000, 4.025000e+003
3.800000e+000, 4.193000e+003
4.000000e+000, 4.213000e+003
4.200000e+000, 4.412000e+003
4.400001e+000, 4.576000e+003
4.600000e+000, 4.688000e+003
4.800000e+000, 4.779000e+003
5.000000e+000, 4.995000e+003
5.200001e+000, 5.167000e+003
5.400000e+000, 5.245000e+003
5.600000e+000, 5.310000e+003
5.800001e+000, 5.473000e+003
6.000000e+000, 5.481000e+003
6.200001e+000, 5.713000e+003
6.400000e+000, 5.715000e+003
6.600000e+000, 5.785000e+003
6.800001e+000, 5.718000e+003
7.000000e+000, 5.644000e+003
7.200001e+000, 5.679000e+003
7.400000e+000, 5.460000e+003
7.600000e+000, 5.662000e+003
7.800001e+000, 5.306000e+003
8.000000e+000, 5.255000e+003
8.200001e+000, 5.214000e+003
8.400000e+000, 5.021000e+003
8.600000e+000, 4.918000e+003
8.800001e+000, 4.822000e+003
9.000000e+000, 4.780000e+003
9.200001e+000, 4.581000e+003
9.400000e+000, 4.749000e+003
9.600000e+000, 4.808000e+003
9.800001e+000, 4.652000e+003
1.000000e+001, 4.736000e+003
1.020000e+001, 4.611000e+003
1.040000e+001, 4.816000e+003
1.060000e+001, 4.700000e+003
1.080000e+001, 4.739000e+003
1.100000e+001, 4.843000e+003
1.120000e+001, 4.889000e+003
1.140000e+001, 4.984000e+003
1.160000e+001, 5.075000e+003
1.180000e+001, 5.120000e+003
1.200000e+001, 5.159000e+003
1.220000e+001, 5.304000e+003
1.240000e+001, 5.476000e+003
1.260000e+001, 5.432000e+003
1.280000e+001, 5.481000e+003
1.300000e+001, 5.762000e+003
1.320000e+001, 5.700000e+003
1.340000e+001, 5.726000e+003
1.360000e+001, 5.781000e+003
1.380000e+001, 5.832000e+003
1.400000e+001, 5.975000e+003
1.420000e+001, 5.893000e+003
1.440000e+001, 5.822000e+003
1.460000e+001, 6.071000e+003
1.480000e+001, 6.139000e+003
1.500000e+001, 6.370000e+003
1.520000e+001, 6.360000e+003
1.540000e+001, 6.552000e+003
1.560000e+001, 6.630000e+003
1.580000e+001, 6.649000e+003
1.600000e+001, 6.872000e+003
1.620000e+001, 7.001000e+003
1.640000e+001, 7.104000e+003
1.660000e+001, 7.268000e+003
1.680000e+001, 7.200000e+003
1.700000e+001, 7.505000e+003
1.720000e+001, 7.588000e+003
1.740000e+001, 7.828000e+003
1.760000e+001, 7.933000e+003
1.780000e+001, 8.018000e+003
1.800000e+001, 8.183000e+003
1.820000e+001, 8.317000e+003
1.840000e+001, 8.446000e+003
1.860000e+001, 8.479010e+003
1.880000e+001, 8.590000e+003
1.900000e+001, 8.732000e+003
1.920000e+001, 8.900000e+003
1.940000e+001, 9.208000e+003
1.960000e+001, 9.139000e+003
1.980000e+001, 9.053000e+003
2.000000e+001, 9.148000e+003
2.020000e+001, 9.438000e+003
2.040000e+001, 9.422000e+003
2.060000e+001, 9.447000e+003
2.080000e+001, 9.651000e+003
2.100000e+001, 9.728000e+003
2.120000e+001, 9.691010e+003
2.140000e+001, 9.679000e+003
2.160000e+001, 9.771000e+003
2.180000e+001, 9.775000e+003
2.200000e+001, 9.654010e+003
2.220000e+001, 9.757000e+003
2.240000e+001, 9.610010e+003
2.260000e+001, 9.732000e+003
2.280000e+001, 9.398000e+003
2.300000e+001, 9.510000e+003
2.320000e+001, 9.368000e+003
2.340000e+001, 9.399000e+003
2.360000e+001, 9.292000e+003
2.380000e+001, 9.302000e+003
2.400000e+001, 9.056000e+003
2.420000e+001, 8.795000e+003
2.440000e+001, 8.724000e+003
2.460000e+001, 8.573000e+003
2.480000e+001, 8.387000e+003
2.500000e+001, 8.298000e+003
2.520000e+001, 8.009000e+003
2.540000e+001, 7.974000e+003
2.560000e+001, 7.666000e+003
2.580000e+001, 7.570000e+003
2.600000e+001, 7.433000e+003
2.620000e+001, 7.262000e+003
2.640000e+001, 6.964000e+003
2.660000e+001, 6.891000e+003
2.680000e+001, 6.624000e+003
2.700000e+001, 6.536000e+003
2.720000e+001, 6.644000e+003
2.740000e+001, 6.410000e+003
2.760000e+001, 6.274000e+003
2.780000e+001, 6.153000e+003
2.800000e+001, 6.083000e+003
2.820000e+001, 6.052000e+003
2.840000e+001, 5.874000e+003
2.860000e+001, 5.778000e+003
2.880000e+001, 5.628000e+003
2.900000e+001, 5.721000e+003
2.920000e+001, 5.554000e+003
2.940000e+001, 5.480000e+003
2.960000e+001, 5.494000e+003
2.980000e+001, 5.376000e+003
3.000000e+001, 5.125000e+003
3.020000e+001, 5.331000e+003
3.040000e+001, 5.163000e+003
3.060000e+001, 5.066000e+003
3.080000e+001, 5.041000e+003
3.100000e+001, 5.013000e+003
3.120000e+001, 4.970000e+003
3.140000e+001, 4.803000e+003
3.160000e+001, 4.788000e+003
3.180000e+001, 4.723000e+003
3.200000e+001, 4.883000e+003
3.220000e+001, 4.686000e+003
3.240000e+001, 4.648000e+003
3.260000e+001, 4.586000e+003
3.280000e+001, 4.639000e+003
3.300000e+001, 4.547000e+003
3.320000e+001, 4.416000e+003
3.340000e+001, 4.358000e+003
3.360000e+001, 4.608000e+003
3.380000e+001, 4.410000e+003
3.400000e+001, 4.382000e+003
3.420000e+001, 4.246000e+003
3.440000e+001, 4.401000e+003
3.460000e+001, 4.283000e+003
3.480000e+001, 4.254000e+003
3.500000e+001, 4.339000e+003
3.520000e+001, 4.194000e+003
3.540000e+001, 4.230000e+003
3.560000e+001, 4.115000e+003
3.580000e+001, 4.207000e+003
3.600000e+001, 4.144000e+003
3.620000e+001, 4.009000e+003
3.640000e+001, 4.021000e+003
3.660000e+001, 3.980000e+003
3.680000e+001, 4.033000e+003
3.700000e+001, 4.052000e+003
3.720000e+001, 3.922000e+003
3.740000e+001, 3.912000e+003
3.760000e+001, 3.868000e+003
3.780000e+001, 3.855000e+003
3.800000e+001, 3.767000e+003
3.820000e+001, 3.815000e+003
3.840000e+001, 3.867000e+003
3.860000e+001, 3.793000e+003
3.880000e+001, 3.629000e+003
3.900000e+001, 3.634000e+003
3.920000e+001, 3.749000e+003
3.940000e+001, 3.767000e+003
3.960000e+001, 3.682000e+003
3.980000e+001, 3.531000e+003
4.000000e+001, 3.551000e+003
4.020000e+001, 3.502000e+003
4.040000e+001, 3.522000e+003
4.060000e+001, 3.374000e+003
4.080000e+001, 3.433000e+003
4.100000e+001, 3.406000e+003
4.120000e+001, 3.395000e+003
4.140000e+001, 3.254000e+003
4.160000e+001, 3.237000e+003
4.180000e+001, 3.196000e+003
4.200000e+001, 3.148000e+003
4.220000e+001, 3.089000e+003
4.240000e+001, 3.148000e+003
4.260000e+001, 3.071000e+003
4.280000e+001, 3.012000e+003
4.300000e+001, 3.007000e+003
4.320000e+001, 2.950000e+003
4.340000e+001, 2.984000e+003
4.360000e+001, 2.965000e+003
4.380000e+001, 2.898000e+003
4.400000e+001, 2.862000e+003
4.420000e+001, 2.851000e+003
4.440000e+001, 2.734000e+003
4.460000e+001, 2.779000e+003
4.480000e+001, 2.739000e+003
4.500000e+001, 2.748000e+003
4.520000e+001, 2.730000e+003
4.540000e+001, 2.624000e+003
4.560000e+001, 2.687000e+003
4.580000e+001, 2.583000e+003
4.600000e+001, 2.468000e+003
4.620000e+001, 2.578000e+003
4.640000e+001, 2.503000e+003
4.660000e+001, 2.551000e+003
4.680000e+001, 2.493000e+003
4.700000e+001, 2.479000e+003
4.720000e+001, 2.490000e+003
4.740000e+001, 2.509000e+003
4.760000e+001, 2.415000e+003
4.780000e+001, 2.289000e+003
4.800000e+001, 2.303000e+003
4.820000e+001, 2.313000e+003
4.840000e+001, 2.251000e+003
4.860000e+001, 2.236000e+003
4.880000e+001, 2.203000e+003
4.900000e+001, 2.276000e+003
4.920000e+001, 2.124000e+003
4.940000e+001, 2.162000e+003
4.960000e+001, 2.188000e+003
4.980000e+001, 2.083000e+003
5.000000e+001, 2.161000e+003
5.020000e+001, 2.055000e+003
5.040000e+001, 2.018000e+003
5.060000e+001, 2.089000e+003
5.080000e+001, 1.976000e+003
5.100000e+001, 1.911000e+003
5.120000e+001, 1.917000e+003
5.140000e+001, 1.967000e+003
5.160000e+001, 1.905000e+003
5.180000e+001, 1.905000e+003
5.200000e+001, 1.856000e+003
5.220000e+001, 1.895000e+003
5.240000e+001, 1.937000e+003
5.260000e+001, 1.895000e+003
5.280000e+001, 1.827000e+003
5.300000e+001, 1.883000e+003
5.320000e+001, 1.917000e+003
5.340000e+001, 1.920000e+003
5.360000e+001, 1.865000e+003
5.380000e+001, 1.767000e+003
5.400000e+001, 1.891000e+003
5.420000e+001, 1.852000e+003
5.440000e+001, 1.904000e+003
5.460000e+001, 1.864000e+003
5.480000e+001, 1.842000e+003
5.500000e+001, 1.807000e+003
5.520000e+001, 2.014000e+003
5.540000e+001, 2.005000e+003
5.560000e+001, 2.106000e+003
5.580000e+001, 2.195000e+003
5.600000e+001, 2.239000e+003
5.620000e+001, 2.379000e+003
5.640000e+001, 2.597000e+003
5.660000e+001, 2.583000e+003
5.680000e+001, 2.599000e+003
5.700000e+001, 2.682000e+003
5.720000e+001, 2.725000e+003
5.740000e+001, 2.793000e+003
5.760000e+001, 2.843000e+003
5.780000e+001, 2.780000e+003
5.800000e+001, 2.683000e+003
5.820000e+001, 2.688000e+003
5.840000e+001, 2.673000e+003
5.860000e+001, 2.558000e+003
5.880000e+001, 2.653000e+003
5.900000e+001, 2.523000e+003
5.920000e+001, 2.498000e+003
5.940000e+001, 2.461000e+003
5.960000e+001, 2.367000e+003
5.980000e+001, 2.287000e+003
6.000000e+001, 2.303000e+003
6.020000e+001, 2.182000e+003
6.040000e+001, 2.171000e+003
6.060000e+001, 2.203000e+003
6.080000e+001, 2.167000e+003
6.100000e+001, 2.148000e+003
6.120000e+001, 1.989000e+003
6.140000e+001, 2.076000e+003
6.160000e+001, 2.014000e+003
6.180000e+001, 2.042000e+003
6.200000e+001, 1.993000e+003
6.220000e+001, 1.941000e+003
6.240000e+001, 1.939000e+003
6.260000e+001, 1.884000e+003
6.280000e+001, 1.856000e+003
6.300000e+001, 1.874000e+003
6.320000e+001, 1.827000e+003
6.340000e+001, 1.795000e+003
6.360000e+001, 1.835000e+003
6.380000e+001, 1.783000e+003
6.400000e+001, 1.793000e+003
6.420000e+001, 1.761000e+003
6.440000e+001, 1.835000e+003
6.460000e+001, 1.760000e+003
6.480000e+001, 1.706000e+003
6.500000e+001, 1.695000e+003
6.520000e+001, 1.703000e+003
6.540000e+001, 1.664000e+003
6.560000e+001, 1.627000e+003
6.580000e+001, 1.619000e+003
6.600000e+001, 1.701000e+003
6.620000e+001, 1.683000e+003
6.640000e+001, 1.614000e+003
6.660000e+001, 1.582000e+003
6.680000e+001, 1.605000e+003
6.700000e+001, 1.588000e+003
6.720000e+001, 1.583000e+003
6.740000e+001, 1.642000e+003
6.760000e+001, 1.511000e+003
6.780000e+001, 1.481000e+003
6.800000e+001, 1.503000e+003
6.820000e+001, 1.540000e+003
6.840000e+001, 1.482000e+003
6.860000e+001, 1.481000e+003
6.880000e+001, 1.433000e+003
6.900000e+001, 1.543000e+003
6.920000e+001, 1.525000e+003
6.940000e+001, 1.498000e+003
6.960000e+001, 1.534000e+003
6.980000e+001, 1.396000e+003
7.000000e+001, 1.381000e+003
7.020000e+001, 1.410000e+003
7.040000e+001, 1.439000e+003
7.060000e+001, 1.344000e+003
7.080000e+001, 1.422000e+003
7.100000e+001, 1.352000e+003
7.120000e+001, 1.366000e+003
7.140000e+001, 1.395000e+003
7.160000e+001, 1.375000e+003
7.180000e+001, 1.304000e+003
7.200000e+001, 1.308000e+003
7.220000e+001, 1.356000e+003
7.240000e+001, 1.367000e+003
7.260000e+001, 1.271000e+003
7.280000e+001, 1.249000e+003
7.300000e+001, 1.269000e+003
7.320000e+001, 1.278000e+003
7.340000e+001, 1.196000e+003
7.360000e+001, 1.301000e+003
7.380000e+001, 1.240000e+003
7.400000e+001, 1.251000e+003
7.420000e+001, 1.169000e+003
7.440000e+001, 1.228000e+003
7.460000e+001, 1.218000e+003
7.480000e+001, 1.211000e+003
7.500000e+001, 1.175000e+003
7.520000e+001, 1.223000e+003
7.540000e+001, 1.209000e+003
7.560000e+001, 1.135000e+003
7.580000e+001, 1.117000e+003
7.600000e+001, 1.189000e+003
7.620000e+001, 1.175000e+003
7.640000e+001, 1.088000e+003
7.660000e+001, 1.146000e+003
7.680000e+001, 1.057000e+003
7.700000e+001, 1.070000e+003
7.720000e+001, 1.145000e+003
7.740000e+001, 1.015000e+003
7.760000e+001, 1.081000e+003
7.780000e+001, 1.109000e+003
7.800000e+001, 1.123000e+003
7.820000e+001, 1.000000e+003
7.840000e+001, 1.035000e+003
7.860000e+001, 1.115000e+003
7.880000e+001, 1.063000e+003
7.900000e+001, 1.002000e+003
7.920000e+001, 1.021000e+003
7.940000e+001, 9.520000e+002
7.960000e+001, 9.940000e+002
7.980000e+001, 1.027000e+003
8.000000e+001, 9.970000e+002
8.020000e+001, 1.007000e+003
8.040000e+001, 9.660000e+002
8.060000e+001, 1.034000e+003
8.080000e+001, 1.005000e+003
8.100000e+001, 1.003000e+003
8.120000e+001, 8.850000e+002
8.140000e+001, 9.580000e+002
8.160000e+001, 9.240000e+002
8.180000e+001, 9.540000e+002
8.200000e+001, 9.310000e+002
8.220000e+001, 8.570000e+002
8.240000e+001, 9.090000e+002
8.260000e+001, 8.980000e+002
8.280000e+001, 9.280000e+002
8.300000e+001, 9.290000e+002
8.320000e+001, 9.070000e+002
8.340000e+001, 8.970000e+002
8.360000e+001, 9.420000e+002
8.380000e+001, 9.030000e+002
8.400000e+001, 9.060000e+002
8.420000e+001, 8.320000e+002
8.440000e+001, 8.830000e+002
8.460000e+001, 9.030000e+002
8.480000e+001, 8.420000e+002
8.500000e+001, 8.900000e+002
8.520000e+001, 8.950000e+002
8.540000e+001, 8.430000e+002
8.560000e+001, 8.800000e+002
8.580000e+001, 8.600000e+002
8.600000e+001, 7.700000e+002
8.620000e+001, 8.520000e+002
8.640000e+001, 8.530000e+002
8.660000e+001, 7.740000e+002
8.680000e+001, 8.000000e+002
8.700000e+001, 8.570000e+002
8.720000e+001, 8.010000e+002
8.740000e+001, 7.970000e+002
8.760000e+001, 8.110000e+002
8.780000e+001, 7.950000e+002
8.800000e+001, 7.480000e+002
8.820000e+001, 8.190000e+002
8.840000e+001, 8.170000e+002
8.860000e+001, 8.180000e+002
8.880000e+001, 7.450000e+002
8.900000e+001, 7.760000e+002
8.920000e+001, 7.720000e+002
8.940000e+001, 8.100000e+002
8.960000e+001, 7.620000e+002
8.980000e+001, 7.370000e+002
9.000000e+001, 7.600000e+002
9.020000e+001, 7.160000e+002
9.040000e+001, 7.780000e+002
9.060000e+001, 7.770000e+002
9.080000e+001, 7.110000e+002
9.100000e+001, 7.440000e+002
9.120000e+001, 7.640000e+002
9.140000e+001, 7.360000e+002
9.160000e+001, 7.350000e+002
9.180000e+001, 7.500000e+002
9.200000e+001, 7.370000e+002
9.220000e+001, 6.740000e+002
9.240000e+001, 7.380000e+002
9.260000e+001, 6.860000e+002
9.280000e+001, 6.830000e+002
9.300000e+001, 7.290000e+002
9.320000e+001, 6.700000e+002
9.340000e+001, 6.670000e+002
9.360000e+001, 6.790000e+002
9.380000e+001, 6.780000e+002
9.400000e+001, 6.900000e+002
9.420000e+001, 6.930000e+002
9.440000e+001, 6.490000e+002
9.460000e+001, 6.890000e+002
9.480000e+001, 6.460000e+002
9.500000e+001, 6.540000e+002
9.520000e+001, 6.200000e+002
9.540000e+001, 6.350000e+002
9.560000e+001, 6.320000e+002
9.580000e+001, 6.540000e+002
9.600000e+001, 6.960000e+002
9.620000e+001, 6.270000e+002
9.640000e+001, 6.070000e+002
9.660000e+001, 5.860000e+002
9.680000e+001, 5.890000e+002
9.700000e+001, 6.050000e+002
9.720000e+001, 6.690000e+002
9.740000e+001, 6.560000e+002
9.760000e+001, 6.250000e+002
9.780000e+001, 5.620000e+002
9.800000e+001, 6.330000e+002
9.820000e+001, 6.180000e+002
9.840000e+001, 6.210000e+002
9.860000e+001, 5.690000e+002
9.880000e+001, 5.840000e+002
9.900000e+001, 5.920000e+002
9.920000e+001, 5.800000e+002
9.940000e+001, 6.130000e+002
9.960000e+001, 5.810000e+002
9.980000e+001, 5.590000e+002
1.000000e+002, 5.520000e+002
1.002000e+002, 5.670000e+002
1.004000e+002, 5.160000e+002
1.006000e+002, 5.580000e+002
1.008000e+002, 5.660000e+002
1.010000e+002, 5.850000e+002
1.012000e+002, 5.730000e+002
1.014000e+002, 5.500000e+002
1.016000e+002, 5.380000e+002
1.018000e+002, 5.550000e+002
1.020000e+002, 5.220000e+002
1.022000e+002, 5.720000e+002
1.024000e+002, 5.560000e+002
1.026000e+002, 5.060000e+002
1.028000e+002, 5.350000e+002
1.030000e+002, 5.320000e+002
1.032000e+002, 5.180000e+002
1.034000e+002, 5.140000e+002
1.036000e+002, 5.570000e+002
1.038000e+002, 5.150000e+002
1.040000e+002, 5.080000e+002
1.042000e+002, 4.700000e+002
1.044000e+002, 4.850000e+002
1.046000e+002, 5.340000e+002
1.048000e+002, 5.050000e+002
1.050000e+002, 5.170000e+002
1.052000e+002, 5.290000e+002
1.054000e+002, 5.270000e+002
1.056000e+002, 4.970000e+002
1.058000e+002, 5.410000e+002
1.060000e+002, 4.850000e+002
1.062000e+002, 4.910000e+002
1.064000e+002, 4.760000e+002
1.066000e+002, 4.830000e+002
1.068000e+002, 4.670000e+002
1.070000e+002, 4.500000e+002
1.072000e+002, 5.270000e+002
1.074000e+002, 4.630000e+002
1.076000e+002, 4.730000e+002
1.078000e+002, 4.400000e+002
1.080000e+002, 4.710000e+002
1.082000e+002, 4.690000e+002
1.084000e+002, 4.610000e+002
1.086000e+002, 4.610000e+002
1.088000e+002, 3.890000e+002
1.090000e+002, 4.530000e+002
1.092000e+002, 4.180000e+002
1.094000e+002, 4.450000e+002
1.096000e+002, 4.660000e+002
1.098000e+002, 4.340000e+002
1.100000e+002, 4.370000e+002
1.102000e+002, 4.410000e+002
1.104000e+002, 4.420000e+002
1.106000e+002, 4.330000e+002
1.108000e+002, 4.120000e+002
1.110000e+002, 3.930000e+002
1.112000e+002, 4.220000e+002
1.114000e+002, 4.130000e+002
1.116000e+002, 4.090000e+002
1.118000e+002, 3.930000e+002
1.120000e+002, 4.060000e+002
1.122000e+002, 4.290000e+002
1.124000e+002, 4.140000e+002
1.126000e+002, 3.870000e+002
1.128000e+002, 4.090000e+002
1.130000e+002, 4.250000e+002
1.132000e+002, 4.460000e+002
1.134000e+002, 4.020000e+002
1.136000e+002, 4.130000e+002
1.138000e+002, 4.160000e+002
1.140000e+002, 3.960000e+002
1.142000e+002, 3.900000e+002
1.144000e+002, 3.610000e+002
1.146000e+002, 4.130000e+002
1.148000e+002, 3.740000e+002
1.150000e+002, 3.620000e+002
1.152000e+002, 4.100000e+002
1.154000e+002, 3.530000e+002
1.156000e+002, 3.790000e+002
1.158000e+002, 3.670000e+002
1.160000e+002, 3.380000e+002
1.162000e+002, 3.220000e+002
1.164000e+002, 4.190000e+002
1.166000e+002, 3.610000e+002
1.168000e+002, 3.870000e+002
1.170000e+002, 3.410000e+002
1.172000e+002, 3.740000e+002
1.174000e+002, 3.640000e+002
1.176000e+002, 3.560000e+002
1.178000e+002, 3.480000e+002
1.180000e+002, 3.530000e+002
1.182000e+002, 3.400000e+002
1.184000e+002, 3.720000e+002
1.186000e+002, 3.620000e+002
1.188000e+002, 3.860000e+002
1.190000e+002, 3.680000e+002
1.192000e+002, 3.700000e+002
1.194000e+002, 3.150000e+002
1.196000e+002, 3.190000e+002
1.198000e+002, 3.330000e+002
1.200000e+002, 3.350000e+002
1.202000e+002, 3.120000e+002
1.204000e+002, 3.210000e+002
1.206000e+002, 3.510000e+002
1.208000e+002, 3.660000e+002
1.210000e+002, 3.500000e+002
1.212000e+002, 3.190000e+002
1.214000e+002, 3.480000e+002
1.216000e+002, 3.410000e+002
1.218000e+002, 3.210000e+002
1.220000e+002, 3.360000e+002
1.222000e+002, 3.480000e+002
1.224000e+002, 3.470000e+002
1.226000e+002, 3.790000e+002
1.228000e+002, 3.280000e+002
1.230000e+002, 3.060000e+002
1.232000e+002, 3.330000e+002
1.234000e+002, 3.300000e+002
1.236000e+002, 3.260000e+002
1.238000e+002, 3.000000e+002
1.240000e+002, 2.870000e+002
1.242000e+002, 2.950000e+002
1.244000e+002, 3.050000e+002
1.246000e+002, 3.440000e+002
1.248000e+002, 2.980000e+002
1.250000e+002, 3.130000e+002
1.252000e+002, 2.960000e+002
1.254000e+002, 3.000000e+002
1.256000e+002, 2.690000e+002
1.258000e+002, 2.900000e+002
1.260000e+002, 3.370000e+002
1.262000e+002, 2.850000e+002
1.264000e+002, 2.910000e+002
1.266000e+002, 3.240000e+002
1.268000e+002, 2.790000e+002
1.270000e+002, 2.540000e+002
1.272000e+002, 2.690000e+002
1.274000e+002, 2.670000e+002
1.276000e+002, 3.290000e+002
1.278000e+002, 2.860000e+002
1.280000e+002, 2.720000e+002
1.282000e+002, 2.690000e+002
1.284000e+002, 2.760000e+002
1.286000e+002, 2.600000e+002
1.288000e+002, 2.460000e+002
1.290000e+002, 2.850000e+002
1.292000e+002, 2.500000e+002
1.294000e+002, 2.660000e+002
1.296000e+002, 2.910000e+002
1.298000e+002, 2.630000e+002
1.300000e+002, 2.770000e+002
1.302000e+002, 2.690000e+002
1.304000e+002, 2.480000e+002
1.306000e+002, 2.490000e+002
1.308000e+002, 2.250000e+002
1.310000e+002, 2.140000e+002
1.312000e+002, 2.550000e+002
1.314000e+002, 2.560000e+002
1.316000e+002, 2.600000e+002
1.318000e+002, 2.680000e+002
1.320000e+002, 2.900000e+002
1.322000e+002, 2.550000e+002
1.324000e+002, 2.580000e+002
1.326000e+002, 2.150000e+002
1.328000e+002, 2.430000e+002
1.330000e+002, 2.560000e+002
1.332000e+002, 2.450000e+002
1.334000e+002, 2.400000e+002
1.336000e+002, 2.670000e+002
1.338000e+002, 2.360000e+002
1.340000e+002, 2.260000e+002
1.342000e+002, 2.030000e+002
1.344000e+002, 2.210000e+002
1.346000e+002, 2.320000e+002
1.348000e+002, 2.290000e+002
1.350000e+002, 2.410000e+002
1.352000e+002, 2.330000e+002
1.354000e+002, 2.110000e+002
1.356000e+002, 2.090000e+002
1.358000e+002, 2.370000e+002
1.360000e+002, 2.240000e+002
1.362000e+002, 2.380000e+002
1.364000e+002, 2.130000e+002
1.366000e+002, 2.170000e+002
1.368000e+002, 2.420000e+002
1.370000e+002, 2.470000e+002
1.372000e+002, 1.900000e+002
1.374000e+002, 2.480000e+002
1.376000e+002, 2.360000e+002
1.378000e+002, 2.280000e+002
1.380000e+002, 2.230000e+002
1.382000e+002, 2.480000e+002
1.384000e+002, 2.260000e+002
1.386000e+002, 2.060000e+002
1.388000e+002, 1.930000e+002
1.390000e+002, 2.330000e+002
1.392000e+002, 2.140000e+002
1.394000e+002, 2.220000e+002
1.396000e+002, 1.790000e+002
1.398000e+002, 2.000000e+002
1.400000e+002, 1.820000e+002
1.402000e+002, 2.270000e+002
1.404000e+002, 2.230000e+002
1.406000e+002, 2.090000e+002
1.408000e+002, 2.180000e+002
1.410000e+002, 2.030000e+002
1.412000e+002, 1.900000e+002
1.414000e+002, 2.150000e+002
1.416000e+002, 2.070000e+002
1.418000e+002, 2.200000e+002
1.420000e+002, 1.750000e+002
1.422000e+002, 1.980000e+002
1.424000e+002, 1.980000e+002
1.426000e+002, 1.980000e+002
1.428000e+002, 2.000000e+002
1.430000e+002, 1.790000e+002
1.432000e+002, 1.950000e+002
1.434000e+002, 1.920000e+002
1.436000e+002, 1.800000e+002
1.438000e+002, 1.890000e+002
1.440000e+002, 1.800000e+002
1.442000e+002, 2.080000e+002
1.444000e+002, 1.750000e+002
1.446000e+002, 1.800000e+002
1.448000e+002, 1.980000e+002
1.450000e+002, 1.740000e+002
1.452000e+002, 2.010000e+002
1.454000e+002, 1.870000e+002
1.456000e+002, 1.770000e+002
1.458000e+002, 2.030000e+002
1.460000e+002, 1.650000e+002
1.462000e+002, 1.790000e+002
1.464000e+002, 1.890000e+002
1.466000e+002, 1.650000e+002
1.468000e+002, 1.870000e+002
1.470000e+002, 1.680000e+002
1.472000e+002, 1.620000e+002
1.474000e+002, 1.990000e+002
1.476000e+002, 1.430000e+002
1.478000e+002, 1.670000e+002
1.480000e+002, 1.910000e+002
1.482000e+002, 1.750000e+002
1.484000e+002, 1.870000e+002
1.486000e+002, 1.720000e+002
1.488000e+002, 1.910000e+002
1.490000e+002, 1.380000e+002
1.492000e+002, 1.830000e+002
1.494000e+002, 1.670000e+002
1.496000e+002, 1.600000e+002
1.498000e+002, 1.720000e+002
1.500000e+002, 1.550000e+002
1.502000e+002, 1.920000e+002
1.504000e+002, 1.370000e+002
1.506000e+002, 1.530000e+002
1.508000e+002, 1.450000e+002
1.510000e+002, 1.600000e+002
1.512000e+002, 1.710000e+002
1.514000e+002, 1.600000e+002
1.516000e+002, 1.540000e+002
1.518000e+002, 1.490000e+002
1.520000e+002, 1.640000e+002
1.522000e+002, 1.670000e+002
1.524000e+002, 1.550000e+002
1.526000e+002, 1.750000e+002
1.528000e+002, 1.580000e+002
1.530000e+002, 1.590000e+002
1.532000e+002, 1.470000e+002
1.534000e+002, 1.740000e+002
1.536000e+002, 1.440000e+002
1.538000e+002, 1.630000e+002
1.540000e+002, 1.450000e+002
1.542000e+002, 1.290000e+002
1.544000e+002, 1.450000e+002
1.546000e+002, 1.490000e+002
1.548000e+002, 1.380000e+002
1.550000e+002, 1.400000e+002
1.552000e+002, 1.360000e+002
1.554000e+002, 1.510000e+002
1.556000e+002, 1.230000e+002
1.558000e+002, 1.580000e+002
1.560000e+002, 1.540000e+002
1.562000e+002, 1.590000e+002
1.564000e+002, 1.520000e+002
1.566000e+002, 1.380000e+002
1.568000e+002, 1.560000e+002
1.570000e+002, 1.580000e+002
1.572000e+002, 1.430000e+002
1.574000e+002, 1.460000e+002
1.576000e+002, 1.340000e+002
1.578000e+002, 1.460000e+002
1.580000e+002, 1.350000e+002
1.582000e+002, 1.670000e+002
1.584000e+002, 1.240000e+002
1.586000e+002, 1.190000e+002
1.588000e+002, 1.480000e+002
1.590000e+002, 1.220000e+002
1.592000e+002, 1.490000e+002
1.594000e+002, 1.330000e+002
1.596000e+002, 1.320000e+002
1.598000e+002, 1.360000e+002
1.600000e+002, 1.360000e+002
1.602000e+002, 1.320000e+002
1.604000e+002, 1.330000e+002
1.606000e+002, 1.540000e+002
1.608000e+002, 1.220000e+002
1.610000e+002, 1.220000e+002
1.612000e+002, 1.310000e+002
1.614000e+002, 1.310000e+002
1.616000e+002, 1.230000e+002
1.618000e+002, 1.180000e+002
1.620000e+002, 1.130000e+002
1.622000e+002, 1.280000e+002
1.624000e+002, 1.240000e+002
1.626000e+002, 1.460000e+002
1.628000e+002, 1.150000e+002
1.630000e+002, 1.380000e+002
1.632000e+002, 1.470000e+002
1.634000e+002, 1.110000e+002
1.636000e+002, 1.070000e+002
1.638000e+002, 1.220000e+002
1.640000e+002, 1.290000e+002
1.642000e+002, 1.190000e+002
1.644000e+002, 1.200000e+002
1.646000e+002, 1.230000e+002
1.648000e+002, 1.110000e+002
1.650000e+002, 1.240000e+002
1.652000e+002, 1.310000e+002
1.654000e+002, 1.320000e+002
1.656000e+002, 1.160000e+002
1.658000e+002, 9.300000e+001
1.660000e+002, 1.160000e+002
1.662000e+002, 1.130000e+002
1.664000e+002, 1.280000e+002
1.666000e+002, 1.270000e+002
1.668000e+002, 1.220000e+002
1.670000e+002, 1.090000e+002
1.672000e+002, 1.010000e+002
1.674000e+002, 1.170000e+002
1.676000e+002, 1.140000e+002
1.678000e+002, 1.140000e+002
1.680000e+002, 1.250000e+002
1.682000e+002, 1.060000e+002
1.684000e+002, 1.270000e+002
1.686000e+002, 1.280000e+002
1.688000e+002, 1.250000e+002
1.690000e+002, 9.100000e+001
1.692000e+002, 1.020000e+002
1.694000e+002, 1.040000e+002
1.696000e+002, 1.150000e+002
1.698000e+002, 1.010000e+002
1.700000e+002, 9.900000e+001
1.702000e+002, 1.370000e+002
1.704000e+002, 1.010000e+002
1.706000e+002, 9.900000e+001
1.708000e+002, 9.800000e+001
1.710000e+002, 1.030000e+002
1.712000e+002, 1.060000e+002
1.714000e+002, 8.600000e+001
1.716000e+002, 1.160000e+002
1.718000e+002, 1.130000e+002
1.720000e+002, 1.140000e+002
1.722000e+002, 1.040000e+002
1.724000e+002, 8.900000e+001
1.726000e+002, 9.200000e+001
1.728000e+002, 1.190000e+002
1.730000e+002, 1.170000e+002
1.732000e+002, 9.600000e+001
1.734000e+002, 8.900000e+001
1.736000e+002, 1.090000e+002
1.738000e+002, 7.900000e+001
1.740000e+002, 9.700000e+001
1.742000e+002, 1.080000e+002
1.744000e+002, 7.400000e+001
1.746000e+002, 8.500000e+001
1.748000e+002, 9.800000e+001
1.750000e+002, 1.080000e+002
1.752000e+002, 8.100000e+001
1.754000e+002, 6.500000e+001
1.756000e+002, 8.000000e+001
1.758000e+002, 9.900000e+001
1.760000e+002, 8.600000e+001
1.762000e+002, 9.300000e+001
1.764000e+002, 9.900000e+001
1.766000e+002, 7.600000e+001
1.768000e+002, 8.700000e+001
1.770000e+002, 8.900000e+001
1.772000e+002, 9.600000e+001
1.774000e+002, 8.400000e+001
1.776000e+002, 7.300000e+001
1.778000e+002, 8.000000e+001
1.780000e+002, 9.600000e+001
1.782000e+002, 7.400000e+001
1.784000e+002, 8.800000e+001
1.786000e+002, 7.300000e+001
1.788000e+002, 9.400000e+001
1.790000e+002, 1.000000e+002
1.792000e+002, 9.800000e+001
1.794000e+002, 7.200000e+001
1.796000e+002, 7.800000e+001
1.798000e+002, 1.110000e+002
1.800000e+002, 7.700000e+001
1.802000e+002, 8.100000e+001
1.804000e+002, 9.100000e+001
1.806000e+002, 8.100000e+001
1.808000e+002, 8.300000e+001
1.810000e+002, 9.300000e+001
1.812000e+002, 9.000000e+001
1.814000e+002, 7.000000e+001
1.816000e+002, 8.200000e+001
1.818000e+002, 9.300000e+001
1.820000e+002, 1.050000e+002
1.822000e+002, 1.020000e+002
1.824000e+002, 1.000000e+002
1.826000e+002, 8.500000e+001
1.828000e+002, 7.600000e+001
1.830000e+002, 8.200000e+001
1.832000e+002, 7.200000e+001
1.834000e+002, 8.400000e+001
1.836000e+002, 8.300000e+001
1.838000e+002, 7.600000e+001
1.840000e+002, 6.900000e+001
1.842000e+002, 7.300000e+001
1.844000e+002, 6.900000e+001
1.846000e+002, 6.500000e+001
1.848000e+002, 9.300000e+001
1.850000e+002, 8.600000e+001
1.852000e+002, 5.600000e+001
1.854000e+002, 8.500000e+001
1.856000e+002, 9.200000e+001
1.858000e+002, 9.500000e+001
1.860000e+002, 6.800000e+001
1.862000e+002, 6.600000e+001
1.864000e+002, 7.800000e+001
1.866000e+002, 6.900000e+001
1.868000e+002, 6.600000e+001
1.870000e+002, 7.300000e+001
1.872000e+002, 9.400000e+001
1.874000e+002, 8.100000e+001
1.876000e+002, 6.100000e+001
1.878000e+002, 7.300000e+001
1.880000e+002, 7.100000e+001
1.882000e+002, 7.600000e+001
1.884000e+002, 7.100000e+001
1.886000e+002, 6.800000e+001
1.888000e+002, 7.300000e+001
1.890000e+002, 7.000000e+001
1.892000e+002, 6.700000e+001
1.894000e+002, 6.800000e+001
1.896000e+002, 8.800000e+001
1.898000e+002, 5.500000e+001
1.900000e+002, 7.500000e+001
1.902000e+002, 6.900000e+001
1.904000e+002, 7.000000e+001
1.906000e+002, 7.400000e+001
1.908000e+002, 5.700000e+001
1.910000e+002, 7.500000e+001
1.912000e+002, 6.700000e+001
1.914000e+002, 7.400000e+001
1.916000e+002, 6.500000e+001
1.918000e+002, 7.000000e+001
1.920000e+002, 5.200000e+001
1.922000e+002, 7.100000e+001
1.924000e+002, 8.500000e+001
1.926000e+002, 6.200000e+001
1.928000e+002, 7.300000e+001
1.930000e+002, 1.838850e+000
1.932000e+002, 1.826070e+000
1.934000e+002, 1.755870e+000
1.936000e+002, -1.000000e+000
#ENDOFDATA   : End Of Data and File