#FORMAT	     : EMSA/MAS Spectral Data File
#VERSION     : 1.0
#TITLE       : KCl(0-0450eV)
#DATE        : 
#TIME        : 
#OWNER       : 
#NPOINTS     : 1024
#NCOLUMNS    : 1
#XUNITS      : eV
#YUNITS      : 
#DATATYPE    : XY
#XPERCHAN    : 5.000000e-001
#OFFSET      : -5.500000e+001
#SPECTRUM    : Spectral Data Starts Here
-5.500000e+001, 1.000000e-001
-5.450000e+001, 1.000000e-001
-5.400000e+001, 1.000000e-001
-5.350000e+001, 1.000000e-001
-5.300000e+001, 1.000000e-001
-5.250000e+001, 1.000000e-001
-5.200000e+001, 1.000000e-001
-5.150000e+001, 1.000000e-001
-5.100000e+001, 1.000000e-001
-5.050000e+001, 1.000000e-001
-5.000000e+001, 1.000000e-001
-4.950000e+001, 1.000000e-001
-4.900000e+001, 1.000000e-001
-4.850000e+001, 1.000000e-001
-4.800000e+001, 1.000000e-001
-4.750000e+001, 1.000000e-001
-4.700000e+001, 1.000000e-001
-4.650000e+001, 1.000000e-001
-4.600000e+001, 1.000000e-001
-4.550000e+001, 1.000000e-001
-4.500000e+001, 1.000000e-001
-4.450000e+001, 1.000000e-001
-4.400000e+001, 8.000000e+000
-4.350000e+001, 9.000000e+000
-4.300000e+001, 7.000000e+000
-4.250000e+001, 1.000000e+001
-4.200000e+001, 7.000000e+000
-4.150000e+001, 7.000000e+000
-4.100000e+001, 9.000000e+000
-4.050000e+001, 7.000000e+000
-4.000000e+001, 9.000000e+000
-3.950000e+001, 7.000000e+000
-3.900000e+001, 8.000000e+000
-3.850000e+001, 9.000000e+000
-3.800000e+001, 7.000000e+000
-3.750000e+001, 8.000000e+000
-3.700000e+001, 7.000000e+000
-3.650000e+001, 8.000000e+000
-3.600000e+001, 8.000000e+000
-3.550000e+001, 7.000000e+000
-3.500000e+001, 8.000000e+000
-3.450000e+001, 6.000000e+000
-3.400000e+001, 7.000000e+000
-3.350000e+001, 6.000000e+000
-3.300000e+001, 6.000000e+000
-3.250000e+001, 7.000000e+000
-3.200000e+001, 6.000000e+000
-3.150000e+001, 6.000000e+000
-3.100000e+001, 8.000000e+000
-3.050000e+001, 6.000000e+000
-3.000000e+001, 6.000000e+000
-2.950000e+001, 6.000000e+000
-2.900000e+001, 7.000000e+000
-2.850000e+001, 7.000000e+000
-2.800000e+001, 6.000000e+000
-2.750000e+001, 7.000000e+000
-2.700000e+001, 5.000000e+000
-2.650000e+001, 7.000000e+000
-2.600000e+001, 5.000000e+000
-2.550000e+001, 6.000000e+000
-2.500000e+001, 6.000000e+000
-2.450000e+001, 5.000000e+000
-2.400000e+001, 6.000000e+000
-2.350000e+001, 6.000000e+000
-2.300000e+001, 6.000000e+000
-2.250000e+001, 8.000000e+000
-2.200000e+001, 5.000000e+000
-2.150000e+001, 5.000000e+000
-2.100000e+001, 8.000000e+000
-2.050000e+001, 5.000000e+000
-2.000000e+001, 7.000000e+000
-1.950000e+001, 5.000000e+000
-1.900000e+001, 8.000000e+000
-1.850000e+001, 6.000000e+000
-1.800000e+001, 5.000000e+000
-1.750000e+001, 7.000000e+000
-1.700000e+001, 6.000000e+000
-1.650000e+001, 5.000000e+000
-1.600000e+001, 6.000000e+000
-1.550000e+001, 5.000000e+000
-1.500000e+001, 6.000000e+000
-1.450000e+001, 5.000000e+000
-1.400000e+001, 6.000000e+000
-1.350000e+001, 4.000000e+000
-1.300000e+001, 5.000000e+000
-1.250000e+001, 7.000000e+000
-1.200000e+001, 7.000000e+000
-1.150000e+001, 5.000000e+000
-1.100000e+001, 5.000000e+000
-1.050000e+001, 6.000000e+000
-1.000000e+001, 1.100000e+001
-9.500000e+000, 6.000000e+000
-9.000000e+000, 6.000000e+000
-8.500000e+000, 1.300000e+001
-8.000000e+000, 9.000000e+000
-7.500000e+000, 1.700000e+001
-7.000000e+000, 1.800000e+001
-6.500000e+000, 2.400000e+001
-6.000000e+000, 3.800000e+001
-5.500000e+000, 4.900000e+001
-5.000000e+000, 8.300000e+001
-4.500000e+000, 1.400000e+002
-4.000000e+000, 2.410000e+002
-3.500000e+000, 4.780000e+002
-3.000000e+000, 1.009000e+003
-2.500000e+000, 2.616000e+003
-2.000000e+000, 7.191000e+003
-1.500000e+000, 2.003400e+004
-1.000000e+000, 7.229610e+004
-5.000000e-001, 1.869700e+005
0.000000e+000, 2.752110e+005
5.000000e-001, 1.921390e+005
1.000000e+000, 7.268200e+004
1.500000e+000, 2.359700e+004
2.000000e+000, 8.337000e+003
2.500000e+000, 3.713000e+003
3.000000e+000, 2.431000e+003
3.500000e+000, 2.211000e+003
4.000000e+000, 2.385000e+003
4.500000e+000, 2.499000e+003
5.000000e+000, 2.575000e+003
5.500000e+000, 2.520000e+003
6.000000e+000, 2.393000e+003
6.500000e+000, 2.367000e+003
7.000000e+000, 2.666000e+003
7.500000e+000, 3.336000e+003
8.000000e+000, 3.898000e+003
8.500000e+000, 4.239000e+003
9.000000e+000, 4.504000e+003
9.500000e+000, 4.726000e+003
1.000000e+001, 4.871000e+003
1.050000e+001, 4.789000e+003
1.100000e+001, 4.712000e+003
1.150000e+001, 4.798000e+003
1.200000e+001, 4.977000e+003
1.250000e+001, 5.354000e+003
1.300000e+001, 5.682000e+003
1.350000e+001, 5.853000e+003
1.400000e+001, 5.780000e+003
1.450000e+001, 5.455000e+003
1.500000e+001, 4.955000e+003
1.550000e+001, 4.402000e+003
1.600000e+001, 3.996000e+003
1.650000e+001, 3.750000e+003
1.700000e+001, 3.631000e+003
1.750000e+001, 3.660000e+003
1.800000e+001, 3.798000e+003
1.850000e+001, 4.044000e+003
1.900000e+001, 4.356000e+003
1.950000e+001, 4.585000e+003
2.000000e+001, 4.737000e+003
2.050000e+001, 4.871000e+003
2.100000e+001, 5.231000e+003
2.150000e+001, 5.770000e+003
2.200000e+001, 6.070000e+003
2.250000e+001, 6.256000e+003
2.300000e+001, 6.378000e+003
2.350000e+001, 6.459000e+003
2.400000e+001, 6.554000e+003
2.450000e+001, 6.644000e+003
2.500000e+001, 6.902000e+003
2.550000e+001, 7.258000e+003
2.600000e+001, 7.563000e+003
2.650000e+001, 7.856000e+003
2.700000e+001, 8.056000e+003
2.750000e+001, 8.360000e+003
2.800000e+001, 8.684000e+003
2.850000e+001, 9.024000e+003
2.900000e+001, 9.245000e+003
2.950000e+001, 9.163000e+003
3.000000e+001, 8.983000e+003
3.050000e+001, 8.722000e+003
3.100000e+001, 8.549000e+003
3.150000e+001, 8.408000e+003
3.200000e+001, 8.202000e+003
3.250000e+001, 7.935000e+003
3.300000e+001, 7.611010e+003
3.350000e+001, 7.282000e+003
3.400000e+001, 7.009000e+003
3.450000e+001, 6.787000e+003
3.500000e+001, 6.580000e+003
3.550000e+001, 6.367000e+003
3.600000e+001, 6.151000e+003
3.650000e+001, 5.919000e+003
3.700000e+001, 5.652000e+003
3.750000e+001, 5.437000e+003
3.800000e+001, 5.227000e+003
3.850000e+001, 5.032000e+003
3.900000e+001, 4.877000e+003
3.950000e+001, 4.717000e+003
4.000000e+001, 4.586000e+003
4.050000e+001, 4.473000e+003
4.100000e+001, 4.376000e+003
4.150000e+001, 4.307000e+003
4.200000e+001, 4.218000e+003
4.250000e+001, 4.150000e+003
4.300000e+001, 4.071000e+003
4.350000e+001, 3.988000e+003
4.400000e+001, 3.916000e+003
4.450000e+001, 3.840000e+003
4.500000e+001, 3.768000e+003
4.550000e+001, 3.714000e+003
4.600000e+001, 3.650000e+003
4.650000e+001, 3.621000e+003
4.700000e+001, 3.566000e+003
4.750000e+001, 3.550000e+003
4.800000e+001, 3.524000e+003
4.850000e+001, 3.498000e+003
4.900000e+001, 3.501000e+003
4.950000e+001, 3.476000e+003
5.000000e+001, 3.469000e+003
5.050000e+001, 3.463000e+003
5.100000e+001, 3.440000e+003
5.150000e+001, 3.446000e+003
5.200000e+001, 3.422000e+003
5.250000e+001, 3.420000e+003
5.300000e+001, 3.414000e+003
5.350000e+001, 3.386000e+003
5.400000e+001, 3.398000e+003
5.450000e+001, 3.376000e+003
5.500000e+001, 3.376000e+003
5.550000e+001, 3.372000e+003
5.600000e+001, 3.349000e+003
5.650000e+001, 3.342000e+003
5.700000e+001, 3.323000e+003
5.750000e+001, 3.318000e+003
5.800000e+001, 3.293000e+003
5.850000e+001, 3.263000e+003
5.900000e+001, 3.259000e+003
5.950000e+001, 3.214000e+003
6.000000e+001, 3.194000e+003
6.050000e+001, 3.171000e+003
6.100000e+001, 3.129000e+003
6.150000e+001, 3.104000e+003
6.200000e+001, 3.062000e+003
6.250000e+001, 3.041000e+003
6.300000e+001, 2.995000e+003
6.350000e+001, 2.959000e+003
6.400000e+001, 2.930000e+003
6.450000e+001, 2.883000e+003
6.500000e+001, 2.855000e+003
6.550000e+001, 2.810000e+003
6.600000e+001, 2.765000e+003
6.650000e+001, 2.728000e+003
6.700000e+001, 2.675000e+003
6.750000e+001, 2.648000e+003
6.800000e+001, 2.606000e+003
6.850000e+001, 2.561000e+003
6.900000e+001, 2.530000e+003
6.950000e+001, 2.479000e+003
7.000000e+001, 2.457000e+003
7.050000e+001, 2.423000e+003
7.100000e+001, 2.375000e+003
7.150000e+001, 2.359000e+003
7.200000e+001, 2.316000e+003
7.250000e+001, 2.292000e+003
7.300000e+001, 2.261000e+003
7.350000e+001, 2.223000e+003
7.400000e+001, 2.201000e+003
7.450000e+001, 2.169000e+003
7.500000e+001, 2.144000e+003
7.550000e+001, 2.122000e+003
7.600000e+001, 2.090000e+003
7.650000e+001, 2.074000e+003
7.700000e+001, 2.043000e+003
7.750000e+001, 2.023000e+003
7.800000e+001, 2.005000e+003
7.850000e+001, 1.977000e+003
7.900000e+001, 1.964000e+003
7.950000e+001, 1.933000e+003
8.000000e+001, 1.922000e+003
8.050000e+001, 1.901000e+003
8.100000e+001, 1.877000e+003
8.150000e+001, 1.873000e+003
8.200000e+001, 1.838000e+003
8.250000e+001, 1.830000e+003
8.300000e+001, 1.810000e+003
8.350000e+001, 1.787000e+003
8.400000e+001, 1.789000e+003
8.450000e+001, 1.752000e+003
8.500000e+001, 1.748000e+003
8.550000e+001, 1.733000e+003
8.600000e+001, 1.703000e+003
8.650000e+001, 1.706000e+003
8.700000e+001, 1.673000e+003
8.750000e+001, 1.670000e+003
8.800000e+001, 1.655000e+003
8.850000e+001, 1.631000e+003
8.900000e+001, 1.622000e+003
8.950000e+001, 1.602000e+003
9.000000e+001, 1.590000e+003
9.050000e+001, 1.580000e+003
9.100000e+001, 1.554000e+003
9.150000e+001, 1.550000e+003
9.200000e+001, 1.523000e+003
9.250000e+001, 1.520000e+003
9.300000e+001, 1.495000e+003
9.350000e+001, 1.481000e+003
9.400000e+001, 1.476000e+003
9.450000e+001, 1.448000e+003
9.500000e+001, 1.445000e+003
9.550000e+001, 1.423000e+003
9.600000e+001, 1.411000e+003
9.650000e+001, 1.402000e+003
9.700000e+001, 1.375000e+003
9.750000e+001, 1.373000e+003
9.800000e+001, 1.357000e+003
9.850000e+001, 1.334000e+003
9.900000e+001, 1.329000e+003
9.950000e+001, 1.310000e+003
1.000000e+002, 1.301000e+003
1.005000e+002, 1.287000e+003
1.010000e+002, 1.266000e+003
1.015000e+002, 1.261000e+003
1.020000e+002, 1.241000e+003
1.025000e+002, 1.233000e+003
1.030000e+002, 1.229000e+003
1.035000e+002, 1.204000e+003
1.040000e+002, 1.199000e+003
1.045000e+002, 1.183000e+003
1.050000e+002, 1.175000e+003
1.055000e+002, 1.164000e+003
1.060000e+002, 1.144000e+003
1.065000e+002, 1.145000e+003
1.070000e+002, 1.121000e+003
1.075000e+002, 1.118000e+003
1.080000e+002, 1.108000e+003
1.085000e+002, 1.094000e+003
1.090000e+002, 1.089000e+003
1.095000e+002, 1.070000e+003
1.100000e+002, 1.067000e+003
1.105000e+002, 1.058000e+003
1.110000e+002, 1.038000e+003
1.115000e+002, 1.040000e+003
1.120000e+002, 1.023000e+003
1.125000e+002, 1.019000e+003
1.130000e+002, 1.011000e+003
1.135000e+002, 9.910000e+002
1.140000e+002, 9.910000e+002
1.145000e+002, 9.740000e+002
1.150000e+002, 9.710000e+002
1.155000e+002, 9.640000e+002
1.160000e+002, 9.460000e+002
1.165000e+002, 9.500000e+002
1.170000e+002, 9.320000e+002
1.175000e+002, 9.290000e+002
1.180000e+002, 9.180000e+002
1.185000e+002, 9.050000e+002
1.190000e+002, 9.090000e+002
1.195000e+002, 8.870000e+002
1.200000e+002, 8.900000e+002
1.205000e+002, 8.730000e+002
1.210000e+002, 8.680000e+002
1.215000e+002, 8.700000e+002
1.220000e+002, 8.480000e+002
1.225000e+002, 8.480000e+002
1.230000e+002, 8.390000e+002
1.235000e+002, 8.300000e+002
1.240000e+002, 8.250000e+002
1.245000e+002, 8.130000e+002
1.250000e+002, 8.130000e+002
1.255000e+002, 8.050000e+002
1.260000e+002, 7.920000e+002
1.265000e+002, 7.920000e+002
1.270000e+002, 7.770000e+002
1.275000e+002, 7.780000e+002
1.280000e+002, 7.670000e+002
1.285000e+002, 7.610000e+002
1.290000e+002, 7.550000e+002
1.295000e+002, 7.420000e+002
1.300000e+002, 7.430000e+002
1.305000e+002, 7.370000e+002
1.310000e+002, 7.250000e+002
1.315000e+002, 7.270000e+002
1.320000e+002, 7.100000e+002
1.325000e+002, 7.120000e+002
1.330000e+002, 7.060000e+002
1.335000e+002, 6.920000e+002
1.340000e+002, 6.950000e+002
1.345000e+002, 6.820000e+002
1.350000e+002, 6.790000e+002
1.355000e+002, 6.740000e+002
1.360000e+002, 6.600000e+002
1.365000e+002, 6.680000e+002
1.370000e+002, 6.510000e+002
1.375000e+002, 6.530000e+002
1.380000e+002, 6.480000e+002
1.385000e+002, 6.340000e+002
1.390000e+002, 6.380000e+002
1.395000e+002, 6.250000e+002
1.400000e+002, 6.230000e+002
1.405000e+002, 6.150000e+002
1.410000e+002, 6.130000e+002
1.415000e+002, 6.130000e+002
1.420000e+002, 5.980000e+002
1.425000e+002, 5.950000e+002
1.430000e+002, 5.950000e+002
1.435000e+002, 5.850000e+002
1.440000e+002, 5.850000e+002
1.445000e+002, 5.760000e+002
1.450000e+002, 5.740000e+002
1.455000e+002, 7.383000e+004
1.460000e+002, 1.433930e+005
1.465000e+002, 2.201290e+005
1.470000e+002, 3.645600e+005
1.475000e+002, 3.606870e+005
1.480000e+002, 3.600870e+005
1.485000e+002, 3.561840e+005
1.490000e+002, 3.533170e+005
1.495000e+002, 3.505620e+005
1.500000e+002, 3.475930e+005
1.505000e+002, 3.468040e+005
1.510000e+002, 3.436410e+005
1.515000e+002, 3.409650e+005
1.520000e+002, 3.377730e+005
1.525000e+002, 3.351800e+005
1.530000e+002, 3.337330e+005
1.535000e+002, 3.306720e+005
1.540000e+002, 3.291180e+005
1.545000e+002, 3.268770e+005
1.550000e+002, 3.236960e+005
1.555000e+002, 3.225660e+005
1.560000e+002, 3.194080e+005
1.565000e+002, 3.185880e+005
1.570000e+002, 3.152690e+005
1.575000e+002, 3.131510e+005
1.580000e+002, 3.118470e+005
1.585000e+002, 3.079110e+005
1.590000e+002, 3.078320e+005
1.595000e+002, 3.042620e+005
1.600000e+002, 3.016760e+005
1.605000e+002, 3.001190e+005
1.610000e+002, 2.973070e+005
1.615000e+002, 2.970270e+005
1.620000e+002, 2.945810e+005
1.625000e+002, 2.920190e+005
1.630000e+002, 2.908080e+005
1.635000e+002, 2.865490e+005
1.640000e+002, 2.865960e+005
1.645000e+002, 2.834820e+005
1.650000e+002, 2.817250e+005
1.655000e+002, 2.797070e+005
1.660000e+002, 2.774790e+005
1.665000e+002, 2.758370e+005
1.670000e+002, 2.733620e+005
1.675000e+002, 2.718310e+005
1.680000e+002, 2.704920e+005
1.685000e+002, 2.674690e+005
1.690000e+002, 2.674720e+005
1.695000e+002, 2.635150e+005
1.700000e+002, 2.630640e+005
1.705000e+002, 2.611620e+005
1.710000e+002, 2.587120e+005
1.715000e+002, 2.589180e+005
1.720000e+002, 2.556240e+005
1.725000e+002, 2.539450e+005
1.730000e+002, 2.536680e+005
1.735000e+002, 2.503490e+005
1.740000e+002, 2.496950e+005
1.745000e+002, 2.475970e+005
1.750000e+002, 2.452720e+005
1.755000e+002, 2.446330e+005
1.760000e+002, 2.417970e+005
1.765000e+002, 2.414740e+005
1.770000e+002, 2.389200e+005
1.775000e+002, 2.370340e+005
1.780000e+002, 2.363260e+005
1.785000e+002, 2.333850e+005
1.790000e+002, 2.329770e+005
1.795000e+002, 2.314600e+005
1.800000e+002, 2.290910e+005
1.805000e+002, 2.285040e+005
1.810000e+002, 2.261070e+005
1.815000e+002, 2.251620e+005
1.820000e+002, 2.233690e+005
1.825000e+002, 2.218310e+005
1.830000e+002, 2.217000e+005
1.835000e+002, 2.188640e+005
1.840000e+002, 2.182280e+005
1.845000e+002, 2.165630e+005
1.850000e+002, 2.148200e+005
1.855000e+002, 2.139080e+005
1.860000e+002, 2.114830e+005
1.865000e+002, 2.111100e+005
1.870000e+002, 2.094430e+005
1.875000e+002, 2.083120e+005
1.880000e+002, 2.074460e+005
1.885000e+002, 2.051400e+005
1.890000e+002, 2.045470e+005
1.895000e+002, 2.027330e+005
1.900000e+002, 2.015980e+005
1.905000e+002, 2.009750e+005
1.910000e+002, 1.984370e+005
1.915000e+002, 1.978640e+005
1.920000e+002, 1.962850e+005
1.925000e+002, 1.947510e+005
1.930000e+002, 1.944050e+005
1.935000e+002, 1.925780e+005
1.940000e+002, 1.926680e+005
1.945000e+002, 1.898430e+005
1.950000e+002, 1.887280e+005
1.955000e+002, 1.884710e+005
1.960000e+002, 1.865400e+005
1.965000e+002, 1.851870e+005
1.970000e+002, 1.842320e+005
1.975000e+002, 1.832560e+005
1.980000e+002, 1.826020e+005
1.985000e+002, 1.804520e+005
1.990000e+002, 1.801820e+005
1.995000e+002, 1.798810e+005
2.000000e+002, 1.792200e+005
2.005000e+002, 1.788190e+005
2.010000e+002, 1.770700e+005
2.015000e+002, 1.772810e+005
2.020000e+002, 1.766260e+005
2.025000e+002, 1.759940e+005
2.030000e+002, 1.761210e+005
2.035000e+002, 1.747980e+005
2.040000e+002, 1.750430e+005
2.045000e+002, 1.742230e+005
2.050000e+002, 1.724940e+005
2.055000e+002, 1.713880e+005
2.060000e+002, 1.687920e+005
2.065000e+002, 1.689630e+005
2.070000e+002, 1.680890e+005
2.075000e+002, 1.679290e+005
2.080000e+002, 1.686280e+005
2.085000e+002, 1.675630e+005
2.090000e+002, 1.689890e+005
2.095000e+002, 1.686440e+005
2.100000e+002, 1.676250e+005
2.105000e+002, 1.670760e+005
2.110000e+002, 1.654610e+005
2.115000e+002, 1.646760e+005
2.120000e+002, 1.638960e+005
2.125000e+002, 1.626680e+005
2.130000e+002, 1.626000e+005
2.135000e+002, 1.611920e+005
2.140000e+002, 1.616500e+005
2.145000e+002, 1.602040e+005
2.150000e+002, 1.589020e+005
2.155000e+002, 1.590390e+005
2.160000e+002, 1.570750e+005
2.165000e+002, 1.580790e+005
2.170000e+002, 1.562850e+005
2.175000e+002, 1.564980e+005
2.180000e+002, 1.562340e+005
2.185000e+002, 1.549630e+005
2.190000e+002, 1.543390e+005
2.195000e+002, 1.539060e+005
2.200000e+002, 1.517860e+005
2.205000e+002, 1.519410e+005
2.210000e+002, 1.503760e+005
2.215000e+002, 1.495620e+005
2.220000e+002, 1.487820e+005
2.225000e+002, 1.483510e+005
2.230000e+002, 1.473920e+005
2.235000e+002, 1.463820e+005
2.240000e+002, 1.463080e+005
2.245000e+002, 1.454810e+005
2.250000e+002, 1.448740e+005
2.255000e+002, 1.450250e+005
2.260000e+002, 1.446590e+005
2.265000e+002, 1.435080e+005
2.270000e+002, 1.433770e+005
2.275000e+002, 1.421860e+005
2.280000e+002, 1.432190e+005
2.285000e+002, 1.408120e+005
2.290000e+002, 1.406740e+005
2.295000e+002, 1.406870e+005
2.300000e+002, 1.392120e+005
2.305000e+002, 1.399570e+005
2.310000e+002, 1.382690e+005
2.315000e+002, 1.382180e+005
2.320000e+002, 1.361400e+005
2.325000e+002, 1.370450e+005
2.330000e+002, 1.369460e+005
2.335000e+002, 1.348430e+005
2.340000e+002, 1.361580e+005
2.345000e+002, 1.350010e+005
2.350000e+002, 1.340630e+005
2.355000e+002, 1.347340e+005
2.360000e+002, 1.336950e+005
2.365000e+002, 1.337690e+005
2.370000e+002, 1.329990e+005
2.375000e+002, 1.328220e+005
2.380000e+002, 1.327960e+005
2.385000e+002, 1.320390e+005
2.390000e+002, 1.317820e+005
2.395000e+002, 1.300600e+005
2.400000e+002, 1.313400e+005
2.405000e+002, 1.308460e+005
2.410000e+002, 1.297160e+005
2.415000e+002, 1.297470e+005
2.420000e+002, 1.294950e+005
2.425000e+002, 1.289900e+005
2.430000e+002, 1.289950e+005
2.435000e+002, 1.278180e+005
2.440000e+002, 1.277850e+005
2.445000e+002, 1.270250e+005
2.450000e+002, 1.262890e+005
2.455000e+002, 1.262550e+005
2.460000e+002, 1.252570e+005
2.465000e+002, 1.254450e+005
2.470000e+002, 1.246330e+005
2.475000e+002, 1.244440e+005
2.480000e+002, 1.247200e+005
2.485000e+002, 1.228240e+005
2.490000e+002, 1.233460e+005
2.495000e+002, 1.230630e+005
2.500000e+002, 1.224800e+005
2.505000e+002, 1.215160e+005
2.510000e+002, 1.208470e+005
2.515000e+002, 1.216360e+005
2.520000e+002, 1.202120e+005
2.525000e+002, 1.196700e+005
2.530000e+002, 1.197640e+005
2.535000e+002, 1.186170e+005
2.540000e+002, 1.185810e+005
2.545000e+002, 1.177650e+005
2.550000e+002, 1.171300e+005
2.555000e+002, 1.176580e+005
2.560000e+002, 1.171000e+005
2.565000e+002, 1.167360e+005
2.570000e+002, 1.155540e+005
2.575000e+002, 1.152890e+005
2.580000e+002, 1.154060e+005
2.585000e+002, 1.145580e+005
2.590000e+002, 1.151330e+005
2.595000e+002, 1.147670e+005
2.600000e+002, 1.136980e+005
2.605000e+002, 1.136650e+005
2.610000e+002, 1.125870e+005
2.615000e+002, 1.129440e+005
2.620000e+002, 1.119180e+005
2.625000e+002, 1.120070e+005
2.630000e+002, 1.120530e+005
2.635000e+002, 1.109560e+005
2.640000e+002, 1.101360e+005
2.645000e+002, 1.105120e+005
2.650000e+002, 1.096900e+005
2.655000e+002, 1.098850e+005
2.660000e+002, 1.089830e+005
2.665000e+002, 1.094870e+005
2.670000e+002, 1.087360e+005
2.675000e+002, 1.086680e+005
2.680000e+002, 1.085760e+005
2.685000e+002, 1.066690e+005
2.690000e+002, 1.075120e+005
2.695000e+002, 1.071240e+005
2.700000e+002, 1.066900e+005
2.705000e+002, 1.070870e+005
2.710000e+002, 1.067300e+005
2.715000e+002, 1.060530e+005
2.720000e+002, 1.060890e+005
2.725000e+002, 1.049380e+005
2.730000e+002, 1.050910e+005
2.735000e+002, 1.043470e+005
2.740000e+002, 1.042690e+005
2.745000e+002, 1.034910e+005
2.750000e+002, 1.035350e+005
2.755000e+002, 1.035060e+005
2.760000e+002, 1.024330e+005
2.765000e+002, 1.031020e+005
2.770000e+002, 1.017880e+005
2.775000e+002, 1.017420e+005
2.780000e+002, 1.017460e+005
2.785000e+002, 1.007490e+005
2.790000e+002, 1.011420e+005
2.795000e+002, 9.999700e+004
2.800000e+002, 1.000090e+005
2.805000e+002, 1.004320e+005
2.810000e+002, 9.927300e+004
2.815000e+002, 9.908300e+004
2.820000e+002, 9.849410e+004
2.825000e+002, 9.817200e+004
2.830000e+002, 9.872310e+004
2.835000e+002, 9.817310e+004
2.840000e+002, 9.795110e+004
2.845000e+002, 9.764210e+004
2.850000e+002, 9.700700e+004
2.855000e+002, 9.730200e+004
2.860000e+002, 9.624600e+004
2.865000e+002, 9.664000e+004
2.870000e+002, 9.613100e+004
2.875000e+002, 9.582800e+004
2.880000e+002, 9.652800e+004
2.885000e+002, 9.467610e+004
2.890000e+002, 9.568100e+004
2.895000e+002, 9.451810e+004
2.900000e+002, 9.437700e+004
2.905000e+002, 9.533510e+004
2.910000e+002, 9.445800e+004
2.915000e+002, 9.633110e+004
2.920000e+002, 9.902610e+004
2.925000e+002, 1.034230e+005
2.930000e+002, 1.127070e+005
2.935000e+002, 1.201100e+005
2.940000e+002, 1.300490e+005
2.945000e+002, 1.357120e+005
2.950000e+002, 1.369960e+005
2.955000e+002, 1.358920e+005
2.960000e+002, 1.359820e+005
2.965000e+002, 1.404290e+005
2.970000e+002, 1.431870e+005
2.975000e+002, 1.445730e+005
2.980000e+002, 1.400980e+005
2.985000e+002, 1.326120e+005
2.990000e+002, 1.263560e+005
2.995000e+002, 1.225980e+005
3.000000e+002, 1.200400e+005
3.005000e+002, 1.184310e+005
3.010000e+002, 1.156530e+005
3.015000e+002, 1.134460e+005
3.020000e+002, 1.123090e+005
3.025000e+002, 1.107520e+005
3.030000e+002, 1.116310e+005
3.035000e+002, 1.107280e+005
3.040000e+002, 1.107790e+005
3.045000e+002, 1.102020e+005
3.050000e+002, 1.103340e+005
3.055000e+002, 1.103890e+005
3.060000e+002, 1.096880e+005
3.065000e+002, 1.107420e+005
3.070000e+002, 1.113470e+005
3.075000e+002, 1.113680e+005
3.080000e+002, 1.111310e+005
3.085000e+002, 1.113320e+005
3.090000e+002, 1.115930e+005
3.095000e+002, 1.106420e+005
3.100000e+002, 1.102700e+005
3.105000e+002, 1.106890e+005
3.110000e+002, 1.098600e+005
3.115000e+002, 1.101430e+005
3.120000e+002, 1.100580e+005
3.125000e+002, 1.095200e+005
3.130000e+002, 1.096900e+005
3.135000e+002, 1.092000e+005
3.140000e+002, 1.100990e+005
3.145000e+002, 1.099840e+005
3.150000e+002, 1.100440e+005
3.155000e+002, 1.101850e+005
3.160000e+002, 1.096130e+005
3.165000e+002, 1.107760e+005
3.170000e+002, 1.111800e+005
3.175000e+002, 1.102080e+005
3.180000e+002, 1.110860e+005
3.185000e+002, 1.102570e+005
3.190000e+002, 1.103770e+005
3.195000e+002, 1.106300e+005
3.200000e+002, 1.107290e+005
3.205000e+002, 1.111160e+005
3.210000e+002, 1.106690e+005
3.215000e+002, 1.111040e+005
3.220000e+002, 1.113560e+005
3.225000e+002, 1.113500e+005
3.230000e+002, 1.124250e+005
3.235000e+002, 1.109330e+005
3.240000e+002, 1.123250e+005
3.245000e+002, 1.121360e+005
3.250000e+002, 1.120310e+005
3.255000e+002, 1.119520e+005
3.260000e+002, 1.116110e+005
3.265000e+002, 1.121930e+005
3.270000e+002, 1.125260e+005
3.275000e+002, 1.118810e+005
3.280000e+002, 1.117200e+005
3.285000e+002, 1.104080e+005
3.290000e+002, 1.111970e+005
3.295000e+002, 1.112190e+005
3.300000e+002, 1.102430e+005
3.305000e+002, 1.101420e+005
3.310000e+002, 1.092820e+005
3.315000e+002, 1.101670e+005
3.320000e+002, 1.094430e+005
3.325000e+002, 1.089630e+005
3.330000e+002, 1.100250e+005
3.335000e+002, 1.085570e+005
3.340000e+002, 1.092240e+005
3.345000e+002, 1.086560e+005
3.350000e+002, 1.084380e+005
3.355000e+002, 1.080740e+005
3.360000e+002, 1.075700e+005
3.365000e+002, 1.080910e+005
3.370000e+002, 1.075290e+005
3.375000e+002, 1.069500e+005
3.380000e+002, 1.078420e+005
3.385000e+002, 1.069140e+005
3.390000e+002, 1.077640e+005
3.395000e+002, 1.070280e+005
3.400000e+002, 1.067420e+005
3.405000e+002, 1.069640e+005
3.410000e+002, 1.056870e+005
3.415000e+002, 1.060150e+005
3.420000e+002, 1.059290e+005
3.425000e+002, 1.061650e+005
3.430000e+002, 1.058540e+005
3.435000e+002, 1.054600e+005
3.440000e+002, 1.052100e+005
3.445000e+002, 1.056550e+005
3.450000e+002, 1.052010e+005
3.455000e+002, 1.055050e+005
3.460000e+002, 1.053670e+005
3.465000e+002, 1.046390e+005
3.470000e+002, 1.044130e+005
3.475000e+002, 1.043800e+005
3.480000e+002, 1.048070e+005
3.485000e+002, 1.040310e+005
3.490000e+002, 1.047350e+005
3.495000e+002, 1.041610e+005
3.500000e+002, 1.036470e+005
3.505000e+002, 1.036110e+005
3.510000e+002, 1.035320e+005
3.515000e+002, 1.035110e+005
3.520000e+002, 1.029990e+005
3.525000e+002, 1.022830e+005
3.530000e+002, 1.027690e+005
3.535000e+002, 1.019320e+005
3.540000e+002, 1.027170e+005
3.545000e+002, 1.016810e+005
3.550000e+002, 1.011210e+005
3.555000e+002, 1.018940e+005
3.560000e+002, 1.010050e+005
3.565000e+002, 1.012070e+005
3.570000e+002, 1.008760e+005
3.575000e+002, 1.006680e+005
3.580000e+002, 1.007140e+005
3.585000e+002, 1.000650e+005
3.590000e+002, 1.007920e+005
3.595000e+002, 1.004080e+005
3.600000e+002, 9.994400e+004
3.605000e+002, 9.959200e+004
3.610000e+002, 9.940600e+004
3.615000e+002, 9.938800e+004
3.620000e+002, 9.902300e+004
3.625000e+002, 9.857710e+004
3.630000e+002, 9.850290e+004
3.635000e+002, 9.793510e+004
3.640000e+002, 9.895500e+004
3.645000e+002, 9.786000e+004
3.650000e+002, 9.800510e+004
3.655000e+002, 9.771300e+004
3.660000e+002, 9.721900e+004
3.665000e+002, 9.706300e+004
3.670000e+002, 9.665700e+004
3.675000e+002, 9.666710e+004
3.680000e+002, 9.684600e+004
3.685000e+002, 9.610700e+004
3.690000e+002, 9.660900e+004
3.695000e+002, 9.634800e+004
3.700000e+002, 9.562300e+004
3.705000e+002, 9.611800e+004
3.710000e+002, 9.545100e+004
3.715000e+002, 9.549800e+004
3.720000e+002, 9.533110e+004
3.725000e+002, 9.566310e+004
3.730000e+002, 9.560810e+004
3.735000e+002, 9.449500e+004
3.740000e+002, 9.557800e+004
3.745000e+002, 9.475900e+004
3.750000e+002, 9.523010e+004
3.755000e+002, 9.524000e+004
3.760000e+002, 9.509300e+004
3.765000e+002, 9.540100e+004
3.770000e+002, 9.529300e+004
3.775000e+002, 9.616400e+004
3.780000e+002, 9.581200e+004
3.785000e+002, 9.590800e+004
3.790000e+002, 9.571600e+004
3.795000e+002, 9.458900e+004
3.800000e+002, 9.449010e+004
3.805000e+002, 9.452710e+004
3.810000e+002, 9.364600e+004
3.815000e+002, 9.353610e+004
3.820000e+002, 9.372000e+004
3.825000e+002, 9.281400e+004
3.830000e+002, 9.308800e+004
3.835000e+002, 9.241810e+004
3.840000e+002, 9.223000e+004
3.845000e+002, 9.226610e+004
3.850000e+002, 9.188510e+004
3.855000e+002, 9.161010e+004
3.860000e+002, 9.127400e+004
3.865000e+002, 9.106010e+004
3.870000e+002, 9.094710e+004
3.875000e+002, 9.023200e+004
3.880000e+002, 9.075510e+004
3.885000e+002, 9.001600e+004
3.890000e+002, 9.069300e+004
3.895000e+002, 8.986100e+004
3.900000e+002, 8.952210e+004
3.905000e+002, 8.983510e+004
3.910000e+002, 8.885500e+004
3.915000e+002, 8.931800e+004
3.920000e+002, 8.857700e+004
3.925000e+002, 8.872200e+004
3.930000e+002, 8.852000e+004
3.935000e+002, 8.857700e+004
3.940000e+002, 8.866500e+004
3.945000e+002, 8.810900e+004
3.950000e+002, 8.705500e+004
3.955000e+002, 8.767410e+004
3.960000e+002, 8.691300e+004
3.965000e+002, 8.676400e+004
3.970000e+002, 8.684500e+004
3.975000e+002, 8.625500e+004
3.980000e+002, 8.666900e+004
3.985000e+002, 8.616910e+004
3.990000e+002, 8.604500e+004
3.995000e+002, 8.629400e+004
4.000000e+002, 8.568900e+004
4.005000e+002, 8.595700e+004
4.010000e+002, 8.524400e+004
4.015000e+002, 8.541500e+004
4.020000e+002, 8.523210e+004
4.025000e+002, 8.446600e+004
4.030000e+002, 8.515410e+004
4.035000e+002, 8.494800e+004
4.040000e+002, 8.436700e+004
4.045000e+002, 8.427400e+004
4.050000e+002, 8.372000e+004
4.055000e+002, 8.436600e+004
4.060000e+002, 8.368000e+004
4.065000e+002, 8.373100e+004
4.070000e+002, 8.332900e+004
4.075000e+002, 8.281600e+004
4.080000e+002, 8.318410e+004
4.085000e+002, 8.272500e+004
4.090000e+002, 8.287700e+004
4.095000e+002, 8.223300e+004
4.100000e+002, 8.206710e+004
4.105000e+002, 8.224700e+004
4.110000e+002, 8.146200e+004
4.115000e+002, 8.154000e+004
4.120000e+002, 7.663710e+004
4.125000e+002, 8.095300e+004
4.130000e+002, 8.175700e+004
4.135000e+002, 8.053800e+004
4.140000e+002, 8.050110e+004
4.145000e+002, 8.060700e+004
4.150000e+002, 8.062000e+004
4.155000e+002, 8.139900e+004
4.160000e+002, 7.940100e+004
4.165000e+002, 8.012000e+004
4.170000e+002, 7.988800e+004
4.175000e+002, 7.886300e+004
4.180000e+002, 7.916000e+004
4.185000e+002, 7.823800e+004
4.190000e+002, 7.915200e+004
4.195000e+002, 7.877000e+004
4.200000e+002, 7.822000e+004
4.205000e+002, 7.839500e+004
4.210000e+002, 7.757800e+004
4.215000e+002, 7.858200e+004
4.220000e+002, 7.772500e+004
4.225000e+002, 7.712410e+004
4.230000e+002, 7.789900e+004
4.235000e+002, 7.701300e+004
4.240000e+002, 7.677910e+004
4.245000e+002, 7.659210e+004
4.250000e+002, 7.648400e+004
4.255000e+002, 7.698000e+004
4.260000e+002, 7.614800e+004
4.265000e+002, 7.679910e+004
4.270000e+002, 7.598810e+004
4.275000e+002, 7.505700e+004
4.280000e+002, 7.541800e+004
4.285000e+002, 7.469200e+004
4.290000e+002, 7.515400e+004
4.295000e+002, 7.516600e+004
4.300000e+002, 7.416400e+004
4.305000e+002, 7.492000e+004
4.310000e+002, 7.424410e+004
4.315000e+002, 7.419100e+004
4.320000e+002, 7.411100e+004
4.325000e+002, 7.344410e+004
4.330000e+002, 7.421200e+004
4.335000e+002, 7.274910e+004
4.340000e+002, 7.360800e+004
4.345000e+002, 7.294410e+004
4.350000e+002, 7.260410e+004
4.355000e+002, 7.297800e+004
4.360000e+002, 7.200900e+004
4.365000e+002, 7.220800e+004
4.370000e+002, 7.219700e+004
4.375000e+002, 7.176700e+004
4.380000e+002, 7.212500e+004
4.385000e+002, 7.132700e+004
4.390000e+002, 7.151700e+004
4.395000e+002, 7.094700e+004
4.400000e+002, 7.069200e+004
4.405000e+002, 7.128300e+004
4.410000e+002, 7.049800e+004
4.415000e+002, 7.020600e+004
4.420000e+002, 7.066010e+004
4.425000e+002, 6.982610e+004
4.430000e+002, 7.078310e+004
4.435000e+002, 6.952010e+004
4.440000e+002, 6.976600e+004
4.445000e+002, 6.934200e+004
4.450000e+002, 6.956400e+004
4.455000e+002, 6.947900e+004
4.460000e+002, 6.858100e+004
4.465000e+002, 6.903400e+004
4.470000e+002, 6.869700e+004
4.475000e+002, 6.794400e+004
4.480000e+002, 6.870000e+004
4.485000e+002, 6.764400e+004
4.490000e+002, 6.841110e+004
4.495000e+002, 6.768400e+004
4.500000e+002, 6.680700e+004
4.505000e+002, 6.741900e+004
4.510000e+002, 6.634100e+004
4.515000e+002, 6.696000e+004
4.520000e+002, 6.707400e+004
4.525000e+002, 6.635500e+004
4.530000e+002, 6.646700e+004
4.535000e+002, 6.634500e+004
4.540000e+002, 6.637610e+004
4.545000e+002, 6.616900e+004
4.550000e+002, 6.560000e+004
4.555000e+002, 6.603100e+004
4.560000e+002, 6.537000e+004
#4.565000e+002, 1.313630e+005
#ENDOFDATA   : End Of Data and File
